
																																																		
Interferometer Scan																																																		
Tuesday, March 22, 2016	11:46:59 PM																																																	
X position (cm)																																																		
0.000000																																																		
Y position (cm)																																																		
0.000000																																																		
Interferometer Positions (um)																																																		
5452.348125	5464.492500	5445.442500	5497.449000	5469.731250	5492.257875	5455.824750	5440.203750	5466.254625	5507.878875	5426.344875	5471.445750	5438.489250	5494.020000	5459.301375	5424.630375	5462.778000	5428.059375	5478.399000	5488.781250	5467.969125	5485.304625	5436.774750	5454.110250	5461.063500	5476.636875	5435.012625	5448.919125	5500.925625	5483.590125	5490.543375	5443.680375	5450.633625	5481.875625	5487.066750	5480.113500	5509.593375	5499.211125	5433.298125	5441.965875	5473.160250	5457.586875	5495.734500	5502.687750	5506.164375	5431.536000	5429.821500	5474.922375	5504.402250	5447.157000	5467.111875
Fringe Signal																																																		
11.968660	67.647925	2.532485	1.952928	47.540715	2.178270	13.091073	2.190879	38.514924	1.735637	1.871994	121.324751	1.913068	2.016404	48.622104	1.902559	30.360429	1.869913	51.560558	2.488309	37.898646	3.393485	2.065570	10.904129	24.913460	56.091935	1.793986	3.363914	1.745379	14.701064	2.061866	2.299944	7.535341	10.265321	3.091842	8.970514	1.836460	1.733048	1.789127	2.912203	39.866775	18.149040	1.942241	1.769535	1.921044	1.742067	1.917362	76.084617	1.808855	4.059169	107.515034
Laser Intensity Signal																																																		
27035.070628	49566.515200	36219.541258	58834.609766	36265.729720	59120.987668	26971.197932	49537.596785	27187.178373	36472.744837	58849.871790	49846.834954	36382.092820	58908.822733	27017.867428	49394.559222	36417.183416	59323.690516	27212.220989	59017.727836	36412.871148	36347.234222	58974.965596	59009.719337	36486.608323	58877.778330	27025.410621	58907.379630	36418.633073	59080.515256	27079.838269	59130.671268	36581.085020	59271.171277	36564.952678	58859.044209	59228.730163	36468.567572	36241.025270	59179.297669	59153.361142	36408.906220	49437.078979	36405.296497	49463.023370	36442.991493	59124.516127	36602.098483	59122.407178	27011.679519	59224.610570
Gaussian Fit																																																		
Amplitude   dAmplitude   Center   dCenter   Width   dWidth																																																		
71.681442	6.053125	5470.184278	0.722704	7.113095	0.728897																																													

																																																		
Interferometer Scan																																																		
Tuesday, March 22, 2016	11:48:05 PM																																																	
X position (cm)																																																		
1.871579																																																		
Y position (cm)																																																		
0.000000																																																		
Interferometer Positions (um)																																																		
5493.258000	5432.536125	5441.203875	5472.445875	5507.116875	5510.593500	5458.539375	5434.250625	5462.016000	5488.019250	5467.207125	5429.059500	5500.163625	5456.824875	5484.590250	5496.734625	5463.778125	5437.727250	5477.637000	5489.781375	5470.683750	5453.348250	5475.874875	5448.157125	5482.828125	5446.395000	5486.304750	5427.345000	5508.879000	5491.495875	5481.113625	5503.640250	5436.012750	5465.492625	5430.774000	5498.449125	5449.871625	5505.402375	5451.633750	5455.062750	5479.351500	5474.160375	5439.489375	5468.969250	5501.925750	5494.972500	5512.308000	5442.918375	5444.680500	5460.301500	5469.826500
Fringe Signal																																																		
2.919961	1.702496	1.893989	41.850259	1.877484	1.826010	24.717191	1.718799	15.427011	22.317878	36.509811	1.774850	2.134581	6.067378	14.297306	2.347298	67.345919	1.766661	25.121644	10.418304	148.655647	2.891695	41.483100	2.429811	29.917435	1.983147	13.064084	1.753079	1.743012	3.763118	101.908308	1.829313	1.756997	28.191021	1.893974	2.210543	2.465878	2.049785	3.246358	2.961286	74.006318	92.750178	1.823167	25.641206	2.156048	2.497366	1.752609	1.938212	2.021653	9.083797	27.169059
Laser Intensity Signal																																																		
59356.866150	36753.794662	59630.109327	27603.350323	59317.705769	27443.941868	59353.707315	36749.554483	50209.449574	27511.896146	50075.116503	27374.912799	49960.094269	36922.405683	50036.351959	36805.249597	59403.236803	47981.002752	48148.553400	38686.608589	48329.656893	48156.982641	47871.071355	48022.796370	38655.402967	38647.146742	47839.429263	47915.871764	46677.358019	47839.232655	38290.311086	45946.188595	47520.191611	47955.544637	38555.826258	47948.087951	38536.983347	38619.168113	47778.719334	48048.174531	48146.157404	38797.525647	38656.791020	47783.399916	38681.196626	47815.022346	47421.342351	38317.369590	38756.472586	38715.866481	38700.038226
Gaussian Fit																																																		
Amplitude   dAmplitude   Center   dCenter   Width   dWidth																																																		
67.087532	8.016053	5474.189793	1.145649	8.159871	1.167635																																													

																																																		
Interferometer Scan																																																		
Tuesday, March 22, 2016	11:49:11 PM																																																	
X position (cm)																																																		
3.743158																																																		
Y position (cm)																																																		
0.000000																																																		
Interferometer Positions (um)																																																		
5509.307625	5511.069750	5483.304375	5497.163250	5490.257625	5448.633375	5467.683375	5474.636625	5455.539000	5507.593125	5434.726875	5452.062375	5479.827750	5439.918000	5472.922125	5514.546375	5516.260875	5445.156750	5469.445500	5459.015625	5471.160000	5505.878625	5491.972125	5504.116500	5495.448750	5498.925375	5478.113250	5476.351125	5436.489000	5441.680125	5462.492250	5488.495500	5481.589875	5431.250250	5460.777750	5453.824500	5438.203500	5502.402000	5500.639875	5486.781000	5446.871250	5443.394625	5433.012375	5465.968875	5512.784250	5493.734250	5464.206750	5450.347875	5485.018875	5457.301125	5473.779375
Fringe Signal																																																		
1.869121	1.644910	34.371556	11.420535	17.499451	1.754498	26.011891	118.657876	2.336040	1.804191	1.626783	1.755529	31.007884	1.680142	143.844596	1.671831	1.661258	1.773802	17.195729	3.047769	28.502037	2.357035	12.569142	2.111079	22.313156	5.109357	34.942662	49.063288	1.714651	1.621409	5.880580	85.919962	41.420812	1.616384	4.079660	1.834335	1.741887	2.338761	5.148698	34.263405	1.588023	1.685372	1.612528	9.707821	1.656754	22.398804	10.112765	1.646989	63.040736	4.596414	27.255399
Laser Intensity Signal																																																		
58114.837053	36123.701412	58223.466906	47036.006400	47000.362680	37831.528940	47145.894543	38140.672737	37762.655846	47064.291738	46908.295086	47066.724434	47152.440279	47175.434240	38130.297078	47212.168479	47093.535212	37825.727693	46987.521556	38031.117517	58110.341284	26713.763348	48918.915973	36005.422039	49057.879818	26833.994383	58454.941368	36128.030720	58197.407171	35949.355991	49139.187712	58569.302999	26893.986038	35996.670362	58276.554998	36042.528522	58301.702472	35978.161684	58192.895672	58163.768852	36078.231224	58268.709028	35970.628977	35981.817283	58043.581071	35941.195448	58441.506488	35964.469903	49176.965284	36184.953979	58182.194954
Gaussian Fit																																																		
Amplitude   dAmplitude   Center   dCenter   Width   dWidth																																																		
82.260789	15.262840	5474.007831	0.637292	2.338206	0.597089																																													

																																																		
Interferometer Scan																																																		
Tuesday, March 22, 2016	11:50:17 PM																																																	
X position (cm)																																																		
5.614737																																																		
Y position (cm)																																																		
0.000000																																																		
Interferometer Positions (um)																																																		
5438.346375	5466.111750	5497.306125	5476.494000	5457.396375	5504.259375	5481.685125	5445.252000	5483.447250	5478.208500	5434.869750	5486.923875	5467.826250	5512.927125	5493.829500	5453.967375	5488.638375	5507.736000	5459.158500	5500.782750	5440.060875	5473.017375	5464.349625	5441.823000	5469.540750	5455.681875	5490.352875	5479.970625	5509.450500	5511.212625	5447.014125	5462.635125	5505.973875	5443.537500	5502.497250	5474.779500	5431.393125	5499.068250	5492.115000	5448.728625	5471.302875	5460.873000	5450.490750	5485.161750	5514.641625	5495.591625	5452.205250	5433.107625	5436.584250	5516.403750	5473.874625
Fringe Signal																																																		
1.738669	8.139528	17.192162	34.717351	2.133731	3.964192	46.060908	1.596841	55.527989	37.790598	1.719650	242.900388	6.168055	1.824158	32.680232	1.670729	58.758425	2.724840	2.682866	10.552551	1.707225	22.354160	3.497768	1.587032	6.835621	2.088660	44.556707	46.283349	2.676407	2.448787	1.788646	2.116475	12.739053	1.555078	6.416921	77.592167	1.663804	11.501231	39.664604	1.639600	8.535445	2.104240	1.793467	212.308520	1.674936	21.697370	1.796374	1.779950	1.578618	1.900327	35.623153
Laser Intensity Signal																																																		
56881.553080	25745.357537	35098.107576	47926.888366	25893.387633	47789.291602	25932.593889	34787.751363	56966.318653	34860.574966	57105.785815	35391.799296	56861.025894	25883.160084	57068.476170	34853.853594	56892.095201	34914.563523	47556.661084	34796.143903	56666.720829	25924.441211	56745.281454	34862.424392	56652.433981	34605.409239	56855.156490	35033.782682	56836.945347	25815.325082	47761.213358	25901.072384	47568.401203	34870.818243	56633.716900	35012.727276	56907.477811	34911.522652	47804.071281	34810.886881	56795.736310	34792.005960	47863.803412	35220.077937	34996.551680	47864.654070	34864.825631	56888.759419	35008.324567	47823.674409	35103.161713
Gaussian Fit																																																		
Amplitude   dAmplitude   Center   dCenter   Width   dWidth																																																		
-43.990500	19.941113	5447.080617	8.464125	13.758802	9.254693																																													

																																																		
Interferometer Scan																																																		
Tuesday, March 22, 2016	11:51:23 PM																																																	
X position (cm)																																																		
7.486316																																																		
Y position (cm)																																																		
0.000000																																																		
Interferometer Positions (um)																																																		
5517.118125	5461.587375	5499.782625	5506.688250	5470.255125	5489.352750	5465.064000	5477.208375	5463.349500	5503.211625	5508.450375	5472.017250	5485.876125	5451.205125	5468.540625	5487.638250	5456.396250	5524.023750	5458.110750	5511.927000	5449.443000	5525.785875	5484.161625	5492.829375	5496.306000	5447.728500	5498.020500	5529.262500	5452.919625	5513.641500	5491.067250	5520.594750	5518.832625	5454.681750	5466.778500	5510.164875	5478.922875	5459.872875	5445.966375	5515.356000	5527.500375	5482.399500	5473.731750	5522.309250	5480.685000	5501.497125	5504.973750	5475.493875	5530.977000	5494.543875	5488.495500
Fringe Signal																																																		
2.015722	1.871369	39.145608	10.115334	3.830279	112.538897	1.960420	13.955110	2.215741	17.968764	6.872801	6.066037	131.695285	1.716908	2.577411	187.977240	1.629697	1.700457	1.559697	12.354300	1.672979	1.546634	95.421877	77.989910	39.375256	1.618417	151.219730	1.561904	1.582478	6.014793	202.025919	1.729289	1.767850	1.712766	2.079374	4.799194	62.684867	1.702527	1.638995	2.996544	1.661839	27.862871	5.654142	1.800881	32.647544	23.879967	23.983101	33.145133	1.609596	51.730503	82.747793
Laser Intensity Signal																																																		
34580.729692	56547.139912	25692.805530	56483.639460	34517.364244	56630.423060	34545.902551	56431.605187	56417.095516	56380.780708	34700.072059	45610.287759	45618.411602	36500.006502	36737.501102	45984.839107	45459.013632	36683.899208	45556.944077	45406.752604	45576.524923	45389.681787	45704.379105	45715.955384	36721.950720	45437.363159	36832.663306	45544.595784	45559.881400	45551.321088	37083.369964	45557.172142	45602.271396	45596.091351	36500.904346	45614.552842	36635.975352	36655.982182	45657.060803	45549.385155	36370.152161	45572.900782	45575.187988	36666.948977	36582.306611	45449.946071	45562.774159	45628.041462	45240.795791	36596.738949	45525.575926
Gaussian Fit																																																		
Amplitude   dAmplitude   Center   dCenter   Width   dWidth																																																		
128.732286	10.933990	5489.718540	0.701262	6.533032	0.685026																																													

																																																		
Interferometer Scan																																																		
Tuesday, March 22, 2016	11:52:29 PM																																																	
X position (cm)																																																		
9.357895																																																		
Y position (cm)																																																		
0.000000																																																		
Interferometer Positions (um)																																																		
5448.776250	5485.209375	5495.639250	5473.065000	5471.350500	5452.252875	5504.307000	5519.880375	5528.595750	5507.783625	5464.397250	5490.400500	5476.541625	5497.353750	5525.119125	5509.498125	5478.256125	5516.451375	5483.494875	5457.444000	5523.357000	5481.732750	5455.729500	5493.877125	5474.779500	5512.974750	5521.642500	5459.206125	5460.920625	5526.833625	5511.212625	5502.544875	5480.018250	5506.021500	5486.923875	5467.873875	5450.538375	5488.686000	5532.024750	5499.068250	5462.682750	5492.162625	5530.310250	5518.165875	5514.689250	5500.830375	5466.111750	5453.967375	5447.061750	5469.588375	5489.543250
Fringe Signal																																																		
1.496551	21.453360	275.288910	2.739512	1.989329	1.699929	164.699473	2.389080	1.628043	34.159063	1.580115	46.463411	4.488761	174.635079	1.619081	13.296891	24.600037	6.426214	13.904975	1.556884	2.410654	12.813675	1.490612	145.377019	3.897687	6.593037	2.087236	1.538881	1.653245	1.557229	32.396864	42.328233	8.580007	33.933594	125.814181	1.759565	1.642576	73.994358	1.727357	53.750473	1.555879	227.933296	1.473309	2.564587	7.149417	79.496315	1.606330	1.680435	1.515496	1.795006	37.800855
Laser Intensity Signal																																																		
34493.485548	56390.248038	35262.888673	56339.036897	34586.907116	47435.979162	34965.259551	56410.190643	25649.745756	56521.807626	34616.902943	56357.928305	34545.536860	57062.259425	34325.278228	56211.113247	34413.901251	56407.265116	25651.108905	56042.693591	34498.112389	47433.112617	34437.274010	56498.421760	34419.496714	34579.234161	56132.114842	34516.234404	56089.276580	34461.253632	56288.056443	34413.346816	47448.552899	34442.633544	47547.974943	25545.050685	56180.223508	34524.792095	47104.743178	56321.343488	34653.238723	47763.448136	34482.067866	56194.052915	34455.057859	56586.641080	34462.390026	47509.046559	34544.614113	56260.187914	34593.271972
Gaussian Fit																																																		
Amplitude   dAmplitude   Center   dCenter   Width   dWidth																																																		
180.999354	19.148234	5495.291325	0.561215	4.863518	0.575628																																													

																																																		
Interferometer Scan																																																		
Tuesday, March 22, 2016	11:53:35 PM																																																	
X position (cm)																																																		
11.229474																																																		
Y position (cm)																																																		
0.000000																																																		
Interferometer Positions (um)																																																		
5455.872375	5468.016750	5513.117625	5533.929750	5478.446625	5483.637750	5466.302250	5495.782125	5492.305500	5480.161125	5485.352250	5469.731250	5487.114375	5511.403125	5500.973250	5518.308750	5520.070875	5452.395750	5516.594250	5473.207875	5488.828875	5474.970000	5499.258750	5535.691875	5461.063500	5532.215250	5532.215250	5457.634500	5509.641000	5502.735375	5530.453125	5490.591000	5462.825625	5464.540125	5481.875625	5459.349000	5476.684500	5525.262000	5471.493375	5507.926500	5521.785375	5497.496625	5523.547500	5454.157875	5494.020000	5526.976500	5506.164375	5528.738625	5514.879750	5537.406375	5494.924875
Fringe Signal																																																		
1.536717	1.480571	19.727084	1.532273	3.369481	5.141291	1.518637	134.693891	40.403377	3.922581	17.650849	1.644532	11.843007	26.668928	93.245288	6.635188	5.189002	1.499185	15.006273	1.852586	21.098349	3.077535	60.208474	1.495579	1.573134	1.519328	1.489368	1.555583	118.937507	50.166288	1.640181	79.500284	1.547902	1.686594	7.893190	1.503423	1.975461	2.134148	1.720501	164.114987	3.493723	70.071253	5.114108	1.500502	38.573356	2.876482	79.148694	1.632940	12.667770	1.519642	56.164132
Laser Intensity Signal																																																		
55299.381658	33791.203082	46581.312389	33781.567980	55267.432858	33741.568737	33779.031736	46955.815240	25180.797665	55285.105295	33627.914895	46472.741519	55550.904893	25051.669463	55571.765002	24910.375158	46644.057866	44549.244191	44455.454310	35973.603000	44505.521193	44531.314852	44608.652575	44462.052475	35934.893507	44498.995118	44620.580127	55383.891640	34182.110904	55304.658616	25192.920515	55523.683860	25065.547366	46550.016328	33874.849300	33718.051799	55299.149660	24950.248571	55104.183992	34055.474381	55199.898010	33974.851994	55050.874388	33612.053873	55305.709814	33733.648056	55335.868170	33746.873221	55317.250703	25149.842391	55355.217019
Gaussian Fit																																																		
Amplitude   dAmplitude   Center   dCenter   Width   dWidth																																																		
15.109231	3467.560405	4945.612668	920981.157080	1049.304027	879063.396316																																													

																																																		
Interferometer Scan																																																		
Tuesday, March 22, 2016	11:54:41 PM																																																	
X position (cm)																																																		
13.101053																																																		
Y position (cm)																																																		
0.000000																																																		
Interferometer Positions (um)																																																		
